File: data/demo_data/eis_after_aging/test_eis_1V_after_aging.txt
freq/Hz	Re(Z)/Ohm	-Im(Z)/Ohm	|Z|/Ohm	Phase(Z)/deg	time/s	<Ewe>/V	<I>/mA
199998	1.50292	0.229277	1.52031	-8.67385	49187.1	1.00075	0.000000000000000E+000
135281	1.59894	0.335465	1.63376	-11.849	49188.2	1.00073	0.368999
91504.6	1.71551	0.429432	1.76844	-14.0536	49189.3	1.00075	0.360967
61896.9	1.84931	0.515483	1.91981	-15.5755	49190.3	1.00074	0.347965
41864.6	2.01128	0.587267	2.09526	-16.2771	49191.3	1.00074	0.335224
28318	2.18995	0.633664	2.27978	-16.1378	49192.2	1.00074	0.346401
19150.8	2.39027	0.654405	2.47823	-15.3112	49193.1	1.00074	0.334668
12952.8	2.58336	0.651997	2.66437	-14.1647	49194	1.00074	0.319397
8768.19	2.76931	0.624688	2.83889	-12.7118	49194.8	0.999913	0.276626
5928.96	2.92736	0.573973	2.9831	-11.0934	49195.7	0.999921	0.311726
4011.4	3.06832	0.531974	3.11409	-9.83597	49196.7	0.999909	0.302424
2713.04	3.18927	0.487287	3.22628	-8.68702	49198.1	0.999904	0.300715
1834.41	3.3002	0.448458	3.33053	-7.73843	49199.6	0.999915	0.295256
1241.19	3.41374	0.415967	3.43898	-6.9473	49201.4	0.999915	0.123607
839.196	3.50522	0.393541	3.52724	-6.40593	49202.9	0.999908	0.0882043
567.639	3.58895	0.37771	3.60878	-6.00782	49204.4	0.999906	0.0871064
384.139	3.66765	0.368245	3.68609	-5.73347	49206	0.9999	0.0825617
259.75	3.74581	0.366808	3.76372	-5.59286	49207.5	0.999901	0.0814026
175.731	3.82482	0.381314	3.84378	-5.69326	49209	0.999909	0.0752
118.821	3.90374	0.40265	3.92445	-5.88893	49210.5	0.999907	0.0723939
80.3858	3.99033	0.437197	4.01421	-6.25263	49212	0.999911	0.0754137
54.3908	4.07656	0.488217	4.10569	-6.82934	49213.6	0.999894	0.0694672
36.777	4.17723	0.556438	4.21412	-7.58757	49215	0.999917	0.0672565
24.8805	4.29178	0.65257	4.3411	-8.64568	49216.5	0.999919	0.0663586
16.8252	4.41755	0.769383	4.48405	-9.87983	49217.9	0.99992	0.0676338
11.3802	4.56246	0.932972	4.65687	-11.557	49219.2	0.999917	0.059213
7.69705	4.71853	1.13988	4.85426	-13.5811	49221.2	0.999899	0.0572803
5.20834	4.90828	1.41411	5.10792	-16.072	49222.6	0.999916	0.0751268
3.52231	5.10762	1.78872	5.41178	-19.3006	49224.8	0.999912	0.0517059
2.38258	5.33051	2.31994	5.81347	-23.5196	49228.3	0.999905	0.0462338
1.61248	5.57965	3.06757	6.3673	-28.801	49232.8	0.999907	0.0165185
1.08992	5.86535	4.16665	7.19468	-35.3894	49239.5	0.999911	0.0512967
0.737309	6.23683	5.73128	8.47027	-42.5812	49249.4	0.999906	0.029555
0.498883	6.70948	7.93857	10.3941	-49.7964	49263.9	0.999896	0.00949022
0.33724	7.33554	11.1123	13.3151	-56.5701	49285.3	0.99991	0.0224083
0.228169	8.23377	15.6365	17.6718	-62.2298	49321.4	0.999905	0.0204023
0.154275	9.34759	22.0309	23.9319	-67.0087	49368.3	0.999903	0.0076036
0.104445	10.8756	31.1186	32.9643	-70.7361	49437.4	0.999912	0.00362971
0.0706606	12.9032	44.1568	46.0034	-73.7109	49539.6	0.999901	0.00620089
0.0477706	15.678	62.922	64.8458	-76.0087	49690.7	0.999895	0.00585453
0.0323293	18.9181	90.0069	91.9736	-78.1301	49913.9	0.999905	0.00234761
0.0218573	23.8098	129.107	131.284	-79.551	50244.1	0.999909	0.000688943
0.0147807	30.4271	185.887	188.36	-80.7039	50800.2	0.999916	0.000931219
0.00999726	39.6115	268.221	271.13	-81.5992	51522.1	0.999918	0.00107097