File: data/demo_data/cvs_before_aging/test_0p5_mVS_CV_before_aging.txt
time/s	Ewe/V	<I>/mA	cycle number
11994.9	0.000576925	-0.398596	1
12104.8	0.0555058	0.039633	1
12216.7	0.111466	0.0494998	1
12328.6	0.167423	0.0542625	1
12440.5	0.223389	0.056863	1
12552.4	0.279282	0.0582067	1
12664.3	0.335253	0.0594971	1
12776.2	0.391177	0.0602025	1
12888.1	0.447151	0.0604977	1
13000	0.503084	0.0616997	1
13111.9	0.55905	0.0625181	1
13223.8	0.614983	0.0625228	1
13335.7	0.670905	0.0633732	1
13447.6	0.726847	0.0642337	1
13559.5	0.78279	0.0647413	1
13671.4	0.838768	0.0659642	1
13783.3	0.894687	0.0667115	1
13895.2	0.950645	0.0670379	1
14007.1	1.00661	0.0681513	1
14119	1.06254	0.0689363	1
14230.9	1.11848	0.0704239	1
14342.8	1.17443	0.070608	1
14454.8	1.23039	0.0721102	1
14566.7	1.28633	0.0726753	1
14678.6	1.34228	0.0736525	1
14790.5	1.39824	0.0750955	1
14902.4	1.45419	0.0761683	1
15014.3	1.51011	0.0773245	1
15126.2	1.56605	0.0784336	1
15238.1	1.622	0.0790894	1
15350	1.67794	0.0805398	1
15461.9	1.7339	0.0820346	1
15573.8	1.78984	0.082829	1
15685.7	1.8458	0.0843414	1
15797.6	1.90172	0.0854024	1
15909.5	1.95766	0.086926	1
16021.4	2.01361	0.0883125	1
16133.3	2.06957	0.0894889	1
16245.2	2.12553	0.091233	1
16357.1	2.18147	0.0927158	1
16469	2.23738	0.0954231	1
16580.9	2.29337	0.0982584	1
16692.8	2.3493	0.099832	1
16804.7	2.40525	0.102908	1
16916.6	2.46118	0.105786	1
17028.5	2.51714	0.10945	1
17140.4	2.57309	0.113883	1
17252.3	2.62902	0.118066	1
17364.2	2.68499	0.124715	1
17468.5	2.66316	-0.0320602	1
17580.4	2.60722	-0.0424686	1
17692.3	2.55125	-0.0479774	1
17804.2	2.49532	-0.0521242	1
17916.1	2.43935	-0.0560159	1
18028	2.3834	-0.0576004	1
18139.9	2.32748	-0.060115	1
18251.8	2.27151	-0.0614964	1
18363.7	2.21559	-0.0624396	1
18475.6	2.15961	-0.0631723	1
18587.5	2.1037	-0.0638962	1
18699.4	2.04773	-0.064594	1
18811.3	1.99179	-0.0650215	1
18923.2	1.93583	-0.0651993	1
19035.1	1.8799	-0.066058	1
19147	1.82395	-0.0657763	1
19258.9	1.76801	-0.0669001	1
19370.8	1.71206	-0.0656926	1
19482.7	1.6561	-0.0662428	1
19594.6	1.60015	-0.066217	1
19706.5	1.54419	-0.0661033	1
19818.4	1.48827	-0.0661302	1
19930.3	1.43233	-0.0659752	1
20042.2	1.37638	-0.0654034	1
20154.1	1.32042	-0.0658718	1
20266	1.26448	-0.0646421	1
20377.9	1.20852	-0.0643622	1
20489.8	1.1526	-0.0641947	1
20601.7	1.09664	-0.0637154	1
20713.6	1.0407	-0.0632379	1
20825.5	0.984777	-0.0629485	1
20937.4	0.928799	-0.0628776	1
21049.3	0.872867	-0.0624282	1
21161.2	0.816905	-0.0623176	1
21273.1	0.761003	-0.0618993	1
21385	0.705013	-0.0617432	1
21496.9	0.649055	-0.0616586	1
21608.8	0.593114	-0.0617365	1
21720.7	0.53719	-0.0616499	1
21832.6	0.481234	-0.0617824	1
21944.5	0.425288	-0.0624444	1
22056.4	0.369342	-0.0629648	1
22168.3	0.313401	-0.0638311	1
22280.2	0.257457	-0.0646964	1
22392.1	0.201508	-0.0657937	1
22504	0.14559	-0.0674056	1
22615.9	0.089622	-0.0692025	1
22727.8	0.033683	-0.0714202	1
22825	0.0156052	0.0428818	2
22936.9	0.0715668	0.0522512	2
23048.8	0.127497	0.0557124	2
23160.7	0.183438	0.0572883	2
23272.6	0.239385	0.0581547	2
23384.5	0.295324	0.0592158	2
23496.4	0.351279	0.0597432	2
23608.3	0.407202	0.0603946	2
23720.2	0.463181	0.0609357	2
23832.1	0.519102	0.0614033	2
23944	0.575064	0.0619327	2
24055.9	0.630974	0.0623112	2
24167.8	0.686935	0.0627653	2
24279.7	0.742865	0.0636723	2
24391.6	0.798829	0.0646061	2
24503.5	0.854771	0.0650562	2
24615.4	0.910706	0.0662585	2
24727.3	0.966659	0.0665548	2
24839.2	1.0226	0.0673928	2
24951.1	1.07858	0.0684153	2
25063	1.1345	0.0686491	2
25174.9	1.19045	0.0697711	2
25286.8	1.24638	0.0710268	2
25398.7	1.30233	0.072123	2
25510.6	1.35829	0.073264	2
25622.5	1.41422	0.0746542	2
25734.4	1.4702	0.0753017	2
25846.3	1.52612	0.0770317	2
25958.2	1.58207	0.0778832	2
26070.1	1.63801	0.0787121	2
26182	1.69397	0.0803969	2
26293.9	1.74991	0.081803	2
26405.8	1.80587	0.0828247	2
26517.7	1.86183	0.0834947	2
26629.6	1.91772	0.0850251	2
26741.5	1.97372	0.0864422	2
26853.4	2.02963	0.0871574	2
26965.3	2.08558	0.0888155	2
27077.2	2.14153	0.0894434	2
27189.1	2.19747	0.0909329	2
27301	2.25344	0.0925953	2
27412.9	2.30938	0.0945572	2
27524.8	2.36532	0.0958175	2
27636.7	2.42127	0.0979205	2
27748.6	2.47722	0.0999176	2
27860.5	2.53316	0.102251	2
27972.4	2.58912	0.105375	2
28084.3	2.64505	0.109114	2
28194.3	2.70006	0.114285	2
28300.4	2.64717	-0.043837	2
28412.3	2.59119	-0.0504218	2
28524.2	2.53525	-0.0545524	2
28636.1	2.47931	-0.056195	2
28748	2.42335	-0.0581087	2
28859.9	2.36742	-0.0593867	2
28971.8	2.31146	-0.0604768	2
29083.7	2.25553	-0.0620741	2
29195.6	2.19959	-0.0628237	2
29307.5	2.14365	-0.0633189	2
29419.4	2.08769	-0.0641808	2
29531.3	2.03174	-0.063363	2
29643.2	1.9758	-0.0645177	2
29755.1	1.91984	-0.0654275	2
29867	1.86391	-0.0659188	2
29978.9	1.80797	-0.0659235	2
30090.8	1.752	-0.0659477	2
30202.7	1.69607	-0.066304	2
30314.6	1.64012	-0.0662287	2
30426.5	1.58417	-0.0664993	2
30538.4	1.52821	-0.066146	2
30650.3	1.47228	-0.065725	2
30762.2	1.41634	-0.0652524	2
30874.1	1.36039	-0.0649265	2
30986	1.30445	-0.0649596	2
31097.9	1.24851	-0.0644309	2
31209.8	1.19255	-0.0641978	2
31321.7	1.1366	-0.0633321	2
31433.6	1.08067	-0.0632425	2
31545.5	1.0247	-0.0631657	2
31657.4	0.968754	-0.0623656	2
31769.3	0.912816	-0.0623808	2
31881.2	0.856863	-0.0618446	2
31993.1	0.800936	-0.0614002	2
32105	0.744981	-0.0610458	2
32216.9	0.689032	-0.0612418	2
32328.8	0.633102	-0.0607301	2
32440.7	0.577165	-0.0608559	2
32552.6	0.521207	-0.0618877	2
32664.5	0.465264	-0.0616143	2
32776.4	0.409328	-0.0617796	2
32888.3	0.353349	-0.0629686	2
33000.2	0.297442	-0.0636259	2
33112.1	0.241507	-0.0642665	2
33224	0.185539	-0.0660953	2
33335.9	0.129583	-0.0676255	2
33447.8	0.073655	-0.0694513	2
33559.7	0.0177262	-0.0716024	2
33657	0.0316118	0.0479822	3
33768.9	0.0875376	0.0532668	3
33880.8	0.143495	0.0556314	3
33992.7	0.199439	0.0574179	3
34104.6	0.25536	0.0577719	3
34216.5	0.311309	0.0586311	3
34328.4	0.367257	0.0593212	3
34440.3	0.423221	0.0597875	3
34552.2	0.479158	0.0601679	3
34664.1	0.535109	0.0606498	3
34776	0.591035	0.0614581	3
34887.9	0.646997	0.0617372	3
34999.8	0.70292	0.0628272	3
35111.7	0.758881	0.0629898	3
35223.6	0.814826	0.0634768	3
35335.5	0.870779	0.0639337	3
35447.4	0.926708	0.0645566	3
35559.3	0.982658	0.0653401	3
35671.2	1.03858	0.0663831	3
35783.1	1.09453	0.0672198	3
35895	1.1505	0.0682825	3
36006.9	1.20644	0.0692008	3
36118.8	1.26238	0.0694969	3
36230.7	1.31833	0.0707822	3
36342.6	1.37429	0.0718367	3
36454.5	1.43025	0.0733839	3
36566.4	1.48616	0.0745117	3
36678.3	1.54212	0.0754793	3
36790.2	1.59806	0.0761541	3
36902.1	1.65402	0.0779968	3
37014	1.70998	0.0780147	3
37125.9	1.76589	0.0793396	3
37237.8	1.82186	0.0805945	3
37349.7	1.87781	0.081472	3
37461.6	1.93374	0.0824348	3
37573.5	1.98969	0.0836929	3
37685.4	2.04564	0.0849736	3
37797.3	2.1016	0.0860888	3
37909.2	2.15754	0.0876309	3
38021.1	2.21349	0.0885384	3
38133	2.26943	0.0898744	3
38244.9	2.32536	0.0910092	3
38356.8	2.38133	0.0930222	3
38468.7	2.43728	0.0940576	3
38580.6	2.49322	0.0966958	3
38692.5	2.54917	0.0986404	3
38804.4	2.60513	0.100974	3
38916.3	2.66105	0.104573	3
39020.5	2.68716	-0.0367818	3
39132.4	2.63119	-0.049812	3
39244.3	2.57525	-0.0546757	3
39356.2	2.51931	-0.0575629	3
39468.1	2.46333	-0.0590686	3
39580	2.4074	-0.0610312	3
39691.9	2.35144	-0.0612863	3
39803.8	2.29552	-0.0627673	3
39915.7	2.23956	-0.0635756	3
40027.6	2.18362	-0.0636098	3
40139.5	2.12768	-0.0639988	3
40251.4	2.07172	-0.064081	3
40363.3	2.01579	-0.0642791	3
40475.2	1.95985	-0.0649255	3
40587.1	1.90389	-0.0652515	3
40699	1.84793	-0.0653594	3
40810.9	1.79201	-0.0659674	3
40922.8	1.73605	-0.0657021	3
41034.7	1.68009	-0.065749	3
41146.6	1.62417	-0.0664783	3
41258.5	1.5682	-0.0657522	3
41370.4	1.51226	-0.06596	3
41482.3	1.45631	-0.0658523	3
41594.2	1.40038	-0.0653748	3
41706.1	1.34443	-0.0644953	3
41818	1.28848	-0.0643453	3
41929.9	1.23254	-0.0641366	3
42041.8	1.17659	-0.0635256	3
42153.7	1.12064	-0.0633469	3
42265.6	1.06469	-0.062893	3
42377.5	1.00875	-0.0623654	3
42489.4	0.952806	-0.062053	3
42601.3	0.896854	-0.0619428	3
42713.2	0.840923	-0.0616286	3
42825.1	0.78497	-0.0609817	3
42937	0.72903	-0.0608431	3
43048.9	0.673082	-0.0607695	3
43160.8	0.617111	-0.0610301	3
43272.7	0.561179	-0.0609235	3
43384.6	0.505249	-0.0612313	3
43496.5	0.449306	-0.0618593	3
43608.4	0.393339	-0.0619341	3
43720.3	0.337433	-0.062694	3
43832.2	0.28147	-0.0637198	3
43944.1	0.225542	-0.0648937	3
44056	0.169568	-0.0663594	3
44167.9	0.113621	-0.0684892	3
44279.8	0.0576841	-0.0700773	3
44391.7	0.00174453	-0.0721129	3
44394.9	0.000588403	0.00163802	3