File: data/demo_data/cvs_after_aging/test_5_mVS_CV_after_aging.txt
time/s	Ewe/V	<I>/mA	cycle number
2274.14	2.6823	0.970181	1
2306.16	2.5572	-0.308718	1
2338.93	2.39336	-0.331771	1
2371.7	2.2295	-0.367087	1
2404.48	2.06566	-0.399391	1
2437.25	1.90182	-0.429129	1
2470.02	1.73797	-0.454953	1
2502.79	1.57412	-0.471134	1
2535.56	1.41028	-0.472573	1
2568.33	1.24644	-0.460978	1
2601.1	1.08263	-0.451622	1
2633.88	0.918774	-0.459685	1
2666.65	0.754922	-0.473376	1
2699.42	0.591086	-0.483418	1
2732.19	0.42727	-0.505973	1
2764.96	0.263442	-0.557048	1
2797.73	0.0996006	-0.633617	1
2829.77	0.0613396	0.208017	1
2862.55	0.225182	0.308121	1
2895.32	0.389006	0.329534	1
2928.09	0.552858	0.350756	1
2960.86	0.716692	0.360862	1
2993.63	0.880533	0.362268	1
3026.4	1.04436	0.374915	1
3059.17	1.20822	0.394061	1
3091.95	1.37207	0.408977	1
3124.72	1.53588	0.420626	1
3157.49	1.69974	0.438381	1
3190.26	1.86358	0.461633	1
3223.03	2.02741	0.488417	1
3255.8	2.19126	0.510443	1
3288.57	2.3551	0.526238	1
3321.35	2.51894	0.544076	1
3354.04	2.68238	0.577213	1
3385.76	2.55918	-0.319123	2
3418.53	2.39536	-0.331705	2
3451.3	2.23151	-0.345626	2
3484.07	2.06767	-0.365545	2
3516.85	1.90383	-0.386564	2
3549.62	1.73997	-0.408048	2
3582.39	1.57614	-0.427643	2
3615.16	1.41229	-0.438742	2
3647.93	1.24845	-0.433958	2
3680.7	1.0846	-0.426289	2
3713.47	0.92074	-0.428773	2
3746.25	0.756921	-0.44134	2
3779.02	0.593088	-0.452151	2
3811.79	0.429262	-0.471032	2
3844.56	0.265414	-0.517255	2
3877.33	0.101566	-0.589877	2
3909.37	0.0593333	0.233203	2
3942.15	0.223202	0.318717	2
3974.92	0.387012	0.332799	2
4007.69	0.550863	0.350944	2
4040.46	0.714676	0.358979	2
4073.23	0.878537	0.361597	2
4106	1.04237	0.375233	2
4138.77	1.20622	0.394086	2
4171.55	1.37007	0.408625	2
4204.32	1.53388	0.422852	2
4237.09	1.69774	0.442711	2
4269.86	1.8616	0.46886	2
4302.63	2.02542	0.495438	2
4335.4	2.18926	0.516962	2
4368.17	2.35308	0.533173	2
4400.95	2.51693	0.552472	2
4433.72	2.68079	0.591501	2
4465.36	2.56119	-0.324806	3
4498.13	2.39734	-0.337103	3
4530.9	2.23352	-0.349194	3
4563.67	2.06965	-0.368553	3
4596.45	1.90583	-0.387203	3
4629.22	1.74199	-0.407932	3
4661.99	1.57815	-0.426742	3
4694.76	1.41429	-0.43922	3
4727.53	1.25046	-0.434672	3
4760.3	1.08663	-0.42652	3
4793.07	0.922749	-0.427392	3
4825.85	0.758948	-0.438476	3
4858.62	0.595089	-0.449042	3
4891.39	0.431253	-0.465572	3
4924.16	0.267429	-0.508878	3
4956.93	0.103596	-0.576943	3
4988.97	0.0573214	0.238669	3
5021.75	0.22119	0.321282	3
5054.52	0.385011	0.334207	3
5087.29	0.54884	0.351382	3
5120.06	0.712693	0.359087	3
5152.83	0.876545	0.361727	3
5185.6	1.04039	0.376799	3
5218.37	1.20421	0.394945	3
5251.15	1.36805	0.408877	3
5283.92	1.5319	0.423751	3
5316.69	1.69576	0.44623	3
5349.46	1.8596	0.47402	3
5382.23	2.02343	0.499791	3
5415	2.18728	0.520501	3
5447.77	2.3511	0.535875	3
5480.55	2.51495	0.557892	3
5513.32	2.67881	0.599295	3
5544.96	2.56319	-0.327505	4
5577.73	2.39936	-0.340654	4
5610.5	2.23552	-0.352353	4
5643.27	2.07166	-0.370393	4
5676.05	1.90781	-0.388989	4
5708.82	1.74399	-0.407498	4
5741.59	1.58013	-0.427331	4
5774.36	1.4163	-0.439287	4
5807.13	1.25244	-0.436922	4
5839.9	1.08861	-0.426979	4
5872.67	0.924756	-0.426582	4
5905.45	0.760943	-0.43739	4
5938.22	0.597078	-0.44772	4
5970.99	0.433237	-0.463949	4
6003.76	0.269411	-0.504355	4
6036.53	0.10558	-0.570487	4
6068.57	0.0553291	0.242876	4
6101.34	0.219166	0.323833	4
6134.12	0.383005	0.335556	4
6166.89	0.546843	0.352039	4
6199.66	0.710696	0.359467	4
6232.43	0.874499	0.36208	4
6265.2	1.03837	0.377155	4
6297.97	1.20223	0.395514	4
6330.74	1.36606	0.409506	4
6363.52	1.52989	0.426046	4
6396.29	1.69374	0.448241	4
6429.06	1.85758	0.476315	4
6461.83	2.02143	0.502027	4
6494.6	2.18526	0.52216	4
6527.37	2.34912	0.538116	4
6560.14	2.51293	0.562094	4
6592.92	2.67679	0.603561	4
6624.56	2.56519	-0.330698	5
6657.33	2.40133	-0.344352	5
6690.1	2.2375	-0.35407	5
6722.87	2.07365	-0.37122	5
6755.64	1.90982	-0.389213	5
6788.42	1.74597	-0.408902	5
6821.19	1.58213	-0.427889	5
6853.96	1.41828	-0.439489	5
6886.73	1.25445	-0.43834	5
6919.5	1.09061	-0.428302	5
6952.27	0.926777	-0.426073	5
6985.04	0.762909	-0.436036	5
7017.82	0.599053	-0.447189	5
7050.59	0.435253	-0.462649	5
7083.36	0.27139	-0.501372	5
7116.13	0.107579	-0.565298	5
7148.17	0.0533344	0.242817	5
7180.94	0.217192	0.324234	5
7213.72	0.38101	0.335995	5
7246.49	0.544841	0.352487	5
7279.26	0.708666	0.359386	5
7312.03	0.872523	0.363436	5
7344.8	1.03637	0.37787	5
7377.57	1.20022	0.395483	5
7410.34	1.36405	0.410505	5
7443.12	1.52789	0.42757	5
7475.89	1.69173	0.450792	5
7508.66	1.85561	0.478088	5
7541.43	2.01943	0.50488	5
7574.2	2.18327	0.524734	5
7606.97	2.34711	0.541092	5
7639.74	2.51095	0.564057	5
7672.52	2.67482	0.608257	5
7704.16	2.5672	-0.33346	6
7736.93	2.40335	-0.347382	6
7769.7	2.23952	-0.35671	6
7802.47	2.07569	-0.372236	6
7835.24	1.91183	-0.389968	6
7868.02	1.74799	-0.40846	6
7900.79	1.58412	-0.428346	6
7933.56	1.42032	-0.440309	6
7966.33	1.25646	-0.439391	6
7999.1	1.0926	-0.428444	6
8031.87	0.928752	-0.426771	6
8064.64	0.764928	-0.435929	6
8097.42	0.601075	-0.446797	6
8130.19	0.437231	-0.461732	6
8162.96	0.273403	-0.499012	6
8195.73	0.109571	-0.56173	6
8227.77	0.0513214	0.242285	6
8260.54	0.215184	0.326236	6
8293.32	0.379009	0.336403	6
8326.09	0.542836	0.352811	6
8358.86	0.706657	0.360092	6
8391.63	0.870515	0.362862	6
8424.4	1.03436	0.378756	6
8457.17	1.1982	0.39606	6
8489.94	1.36204	0.411302	6
8522.72	1.52588	0.428105	6
8555.49	1.68972	0.451532	6
8588.26	1.85359	0.480265	6
8621.03	2.01741	0.505548	6
8653.8	2.18127	0.525609	6
8686.57	2.34512	0.542897	6
8719.34	2.50897	0.565951	6
8752.12	2.67282	0.609384	6
8783.76	2.56922	-0.334654	7
8816.53	2.40537	-0.34881	7
8849.3	2.24151	-0.358002	7
8882.07	2.07767	-0.373266	7
8914.84	1.91383	-0.390067	7
8947.62	1.75001	-0.408872	7
8980.39	1.58614	-0.428236	7
9013.16	1.4223	-0.441627	7
9045.93	1.25846	-0.439463	7
9078.7	1.09461	-0.429462	7
9111.47	0.930767	-0.426768	7
9144.24	0.766934	-0.434893	7
9177.02	0.603084	-0.446787	7
9209.79	0.439255	-0.459921	7
9242.56	0.275422	-0.49647	7
9275.33	0.111573	-0.559147	7
9307.37	0.0493322	0.240686	7
9340.14	0.21318	0.325874	7
9372.91	0.37701	0.337558	7
9405.69	0.540861	0.353335	7
9438.46	0.704677	0.359574	7
9471.23	0.868532	0.363606	7
9504	1.03235	0.378469	7
9536.77	1.19623	0.396373	7
9569.54	1.36008	0.411689	7
9602.31	1.52389	0.428923	7
9635.09	1.68775	0.452904	7
9667.86	1.8516	0.481577	7
9700.63	2.01545	0.507118	7
9733.4	2.17928	0.527173	7
9766.17	2.34312	0.544009	7
9798.94	2.50698	0.568454	7
9831.71	2.67082	0.612381	7
9863.36	2.5712	-0.336455	8
9896.13	2.40735	-0.350817	8
9928.9	2.2435	-0.358966	8
9961.67	2.07967	-0.374518	8
9994.44	1.9158	-0.391659	8
10027.2	1.75201	-0.409768	8
10060	1.58815	-0.428218	8
10092.8	1.42432	-0.440519	8
10125.5	1.26047	-0.440652	8
10158.3	1.09663	-0.430293	8
10191.1	0.932791	-0.426177	8
10223.8	0.768923	-0.435161	8
10256.6	0.605102	-0.446462	8
10289.4	0.441272	-0.460189	8
10322.2	0.277447	-0.494742	8
10354.9	0.113588	-0.557301	8
10387	0.0473517	0.239107	8
10419.7	0.211183	0.326392	8
10452.5	0.375011	0.337355	8
10485.3	0.538853	0.352832	8
10518.1	0.702692	0.359673	8
10550.8	0.866516	0.362568	8
10583.6	1.03038	0.378611	8
10616.4	1.19422	0.396179	8
10649.1	1.35805	0.411373	8
10681.9	1.52188	0.429516	8
10714.7	1.68572	0.453158	8
10747.5	1.84959	0.482366	8
10780.2	2.01342	0.508337	8
10813	2.17727	0.528199	8
10845.8	2.34111	0.545144	8
10878.5	2.50494	0.56895	8
10911.3	2.66879	0.615004	8
10943	2.57318	-0.337687	9
10975.7	2.40933	-0.35205	9
11008.5	2.24548	-0.359616	9
11041.3	2.08165	-0.374911	9
11074	1.91781	-0.391605	9
11106.8	1.75397	-0.409481	9
11139.6	1.59013	-0.428357	9
11172.4	1.42631	-0.441655	9
11205.1	1.26245	-0.441416	9
11237.9	1.09862	-0.431277	9
11270.7	0.934764	-0.427021	9
11303.4	0.770945	-0.434438	9
11336.2	0.607088	-0.446104	9
11369	0.443258	-0.459355	9
11401.8	0.279434	-0.494377	9
11434.5	0.115589	-0.554193	9
11466.6	0.0453612	0.236903	9
11499.3	0.209195	0.326727	9
11532.1	0.373045	0.337855	9
11564.9	0.536891	0.353215	9
11597.7	0.700707	0.358883	9
11630.4	0.864561	0.363401	9
11663.2	1.02836	0.378955	9
11696	1.19221	0.396131	9
11728.7	1.35607	0.412166	9
11761.5	1.51991	0.429555	9
11794.3	1.68375	0.454493	9
11827.1	1.84761	0.482872	9
11859.8	2.01146	0.509091	9
11892.6	2.1753	0.528501	9
11925.4	2.33911	0.546029	9
11958.1	2.50298	0.570368	9
11990.9	2.6668	0.615515	9
11994.1	2.68297	0.62341	9