File: demo_data/eis_before_aging/test_eis_0p5V_before_aging.txt
freq/Hz	Re(Z)/Ohm	-Im(Z)/Ohm	|Z|/Ohm	Phase(Z)/deg	time/s	<Ewe>/V	<I>/mA
199998	0.770606	-0.0412207	0.771707	3.06191	46712.7	0.500766	0.455147
135281	0.805689	0.023824	0.806041	-1.69372	46713.8	0.500764	0.430175
91504.6	0.84524	0.067899	0.847963	-4.59277	46714.8	0.500766	0.419776
61896.9	0.885938	0.0962708	0.891153	-6.20173	46715.7	0.500767	0.408409
41864.6	0.93024	0.11114	0.936856	-6.81312	46716.7	0.500771	0.39432
28318	0.970446	0.116203	0.977378	-6.82818	46717.7	0.500765	0.38463
19150.8	1.00586	0.114194	1.01232	-6.47698	46718.7	0.500763	0.369312
12952.8	1.03829	0.106581	1.04375	-5.86091	46719.6	0.500762	0.363684
8768.19	1.0651	0.0989928	1.06969	-5.30996	46720.5	0.499931	0.349446
5928.96	1.08833	0.0919935	1.09222	-4.83155	46721.4	0.49992	0.352502
4011.4	1.10916	0.0864479	1.11252	-4.45664	46722.4	0.499914	0.348067
2713.04	1.12731	0.0820991	1.1303	-4.16534	46723.8	0.499939	0.341135
1834.41	1.14471	0.0800332	1.14751	-3.99936	46725.4	0.499936	0.333308
1241.19	1.16096	0.0794001	1.16367	-3.91248	46726.9	0.499925	0.330214
839.196	1.17742	0.0819517	1.18027	-3.98153	46728.4	0.499924	0.320897
567.639	1.19685	0.0867984	1.19999	-4.14797	46729.9	0.499926	0.313554
384.139	1.21315	0.0951851	1.21688	-4.4863	46731.4	0.499931	0.316238
259.75	1.23449	0.106945	1.23911	-4.95124	46733	0.499939	0.309603
175.731	1.2555	0.122854	1.2615	-5.58874	46734.5	0.499936	0.304385
118.821	1.28275	0.143561	1.29076	-6.38577	46736	0.49993	0.291192
80.3858	1.31123	0.170655	1.32229	-7.41528	46737.5	0.49995	0.293241
54.3908	1.34803	0.205158	1.36355	-8.65349	46739	0.499937	0.279787
36.777	1.38861	0.247376	1.41047	-10.1011	46740.5	0.49993	0.275277
24.8805	1.44239	0.296627	1.47258	-11.6208	46742	0.499942	0.280644
16.8252	1.51031	0.36275	1.55326	-13.5056	46743.6	0.499933	0.0700466
11.3802	1.58741	0.438745	1.64693	-15.4503	46744.9	0.499925	0.0691181
7.69705	1.67748	0.527807	1.75855	-17.4658	46746.9	0.499926	0.0656057
5.20834	1.77388	0.63636	1.88457	-19.7349	46748.3	0.499943	0.0582527
3.52231	1.87281	0.774483	2.02664	-22.4671	46750.5	0.499936	0.0655367
2.38258	1.96163	0.972697	2.18955	-26.3751	46753.5	0.499939	0.0563573
1.61248	2.03393	1.27346	2.3997	-32.0509	46758.1	0.499924	0.0522913
1.08992	2.10302	1.7265	2.72094	-39.3847	46765.7	0.499928	0.0290798
0.737309	2.17494	2.42384	3.25659	-48.0981	46775.6	0.499926	0.0214946
0.498883	2.25799	3.4462	4.12005	-56.7667	46790.1	0.499937	0.015
0.33724	2.35683	4.97686	5.5067	-64.6597	46811.5	0.499925	0.0144487
0.228169	2.52959	7.21142	7.64222	-70.6704	46843.2	0.499921	0.0098179
0.154275	2.74814	10.4856	10.8397	-75.3138	46890	0.499932	0.00645345
0.104445	3.11492	15.2273	15.5426	-78.439	46959.2	0.499924	0.00526227
0.0706606	3.65869	22.131	22.4314	-80.6128	47075.6	0.49992	0.00211674
0.0477706	4.58005	32.0864	32.4116	-81.8764	47226.7	0.499933	0.00167806
0.0323293	5.74428	46.6354	46.9878	-82.978	47449.9	0.499924	0.000809534
0.0218573	7.69591	67.5002	67.9375	-83.4956	47780.1	0.499937	0.000468049
0.0147807	10.3394	97.666	98.2118	-83.9569	48268.4	0.499927	0.00032929
0.00999726	13.8742	141.003	141.684	-84.3804	48990.2	0.499923	0.000168918